#index kx_value ky_value E0(k)  E1(k)   E2(k) .....
0  0  0   3  -3  0  -11.1629  -38.4559  -38.456  -54.6846  -54.6846  -84.1999  -103.997  -103.997  -107.265  -107.265  -116.403  -135.044  -137.641  -157.727  -157.727  -191.478  -191.481  -214.83  -221.057  -221.058  -224.673  -225.216  -225.217  -228.306  -267.46  -267.464  -268.16  -268.16  -275.894  -291.721  -315.07  -330.951  -330.96  -358.798  -358.826  -376.42  -376.553  -377.15  -377.196  -379.446  -379.501  -390.716  -418.276  -422.387  -422.392  -427.911  -427.921  -429.6  -472.666  -472.711  -473.957  -474.316  -474.372  -479.377  -537.885  -544.293  -544.312  -556.812  -557.06  -564.545  -579.924  -580.416  -580.611  -581.127  -581.843  -582.011  -622.823  -623.906  -624.084  -625.673  -629.163  -629.773  -676.797  -680.536  -680.893  -685.8  -690.901  -692.574  -710.676  -713.774  -713.819  -716.325  -732.866  -733.066  -811.447  -813.877  -825.159  -825.339  -827.266  -827.976  -828.667  -830.508  -832.775  -834.238  -872.993  -873.254  -876.635  -876.746  -919.458  -921.133  -930.686  -930.856  -986.896  -997.13  -1004.18  -1006.22  -1007.81  -1014.81  -1029.23  -1029.26  -1120.54  -1120.62  -1152.07  -1152.54  -1164.87  -1166.16  -1221.25  -1237.41  -1251.14  -1267.27  -1362.37  -1364.62  -1458.49  -1459.4  -1503.19  -1519.44  -1550.45  -1576.2  -1632.08  -1642.56  -1841.69  -1850.77  -1886.6  -1928.65  -1956.69  -1986.46  -2270.66  -2313.51  -2329.58  -2386.12  -2751.88  -2828.84  -3303.83  
1  0  0.00693362   2.93185  -2.93185  -0.088026  -10.9563  -38.3493  -38.7039  -54.704  -55.0052  -84.1332  -101.005  -101.729  -108.912  -109.566  -118.021  -134.277  -138.22  -157.559  -158.592  -191.437  -191.74  -209.375  -217.027  -217.574  -225.869  -228.03  -229.319  -234.198  -260.799  -262.694  -269.757  -273.122  -280.172  -293.627  -312.106  -330.108  -333.384  -357.448  -360.019  -363.833  -370.964  -371.16  -383.387  -385.762  -389.752  -395.877  -408.271  -417.414  -418.466  -430.677  -432.85  -441.069  -460.125  -466.588  -468.714  -481.095  -482.549  -490.073  -528.44  -539.249  -548.866  -553.342  -561.796  -562.787  -571.205  -572.305  -574.116  -589.947  -590.137  -600.521  -605.703  -615.174  -619.727  -633.734  -633.853  -647.838  -661.923  -672.477  -680.523  -690.111  -691.34  -695.497  -705.365  -709.107  -723.373  -724.147  -725.117  -751.387  -794.371  -805.726  -812.227  -812.54  -817.247  -829.678  -838.853  -839.608  -845.766  -851.099  -854.353  -861.892  -884.491  -887.849  -907.69  -909.555  -932.688  -941.845  -972.151  -984.418  -991.623  -1007.36  -1012.26  -1012.33  -1029.39  -1045.3  -1107.43  -1130.54  -1133.8  -1149.52  -1154.48  -1179.43  -1207.71  -1238.95  -1250.08  -1281.21  -1341.59  -1359.59  -1443.51  -1474.51  -1488.17  -1534.49  -1535.79  -1591.51  -1614.06  -1631.01  -1824.83  -1867.77  -1869.86  -1939.4  -1945.72  -1970.43  -2251.96  -2310.88  -2332.41  -2367.68  -2731.34  -2808.4  -3281.47  
2  0  0.0138672   2.73205  -2.73205  -0.348975  -10.3735  -38.0494  -39.4116  -54.7287  -55.9557  -83.8502  -96.8427  -98.4356  -109.839  -112.926  -122.137  -132.38  -139.962  -157.108  -160.788  -191.308  -191.743  -201.975  -211.029  -212.669  -228.885  -231.5  -234.175  -244.782  -253.338  -257.9  -268.369  -278.519  -287.031  -299.13  -306.221  -327.643  -337.653  -348.362  -357.04  -361.679  -364.959  -366.475  -390.134  -393.213  -395.168  -397.623  -409.439  -410.461  -410.578  -438.31  -439.646  -446.586  -455.349  -460.443  -462.673  -489.273  -490.75  -504.726  -515.831  -528.19  -543.892  -550.999  -552.691  -562.156  -563.267  -575.146  -587.55  -587.66  -599.401  -599.661  -606.121  -610.653  -619.655  -643.217  -643.334  -644.685  -661.877  -666.806  -670.903  -678.012  -694.568  -699.042  -702.395  -717.384  -726.514  -735.418  -737.092  -770.143  -776.462  -784.205  -794.621  -805.107  -814.021  -830.269  -832.444  -850.373  -850.539  -851.332  -863.942  -869.474  -886.669  -895.774  -898.087  -899.492  -944.917  -953.172  -954.713  -964.429  -985.752  -987.063  -1017.94  -1018.28  -1046.97  -1062.6  -1094.36  -1109.02  -1137.9  -1147.06  -1153.51  -1193.01  -1193.49  -1228.41  -1262.06  -1296.71  -1320.14  -1355.92  -1428.62  -1473.15  -1489.78  -1521.79  -1549.67  -1593.87  -1607.46  -1622.46  -1808.04  -1853.41  -1885  -1921.43  -1955.97  -1963.19  -2233.43  -2292.31  -2349.9  -2351.63  -2711.02  -2788.37  -3259.42  
3  0  0.0208009   2.41421  -2.41421  -0.773241  -9.5083  -37.6091  -40.4917  -54.6634  -57.4949  -83.1139  -93.3159  -95.1577  -110.087  -116.15  -127.068  -130.178  -142.843  -156.569  -163.529  -187.613  -191.078  -199.486  -205.661  -207.712  -229.011  -236.979  -239.533  -247.106  -252.601  -256.89  -266.694  -283.753  -293.086  -300.163  -307.338  -323.846  -335.307  -341.327  -353.37  -356.259  -361.037  -371.552  -382.149  -397.365  -400.421  -403.413  -403.71  -405.734  -424.711  -433.293  -445.199  -446.407  -455.315  -457.661  -470.375  -497.86  -499.359  -503.544  -516.076  -520.054  -526.204  -550.659  -551.725  -555.153  -556.049  -569.879  -589.55  -597.102  -601.421  -602.094  -609.051  -609.532  -627.258  -639.116  -649.996  -652.868  -653.713  -659.257  -662.784  -686.102  -691.303  -705.945  -708.077  -712.289  -743.247  -748.374  -752.405  -758.622  -763.057  -777.502  -789.231  -794.236  -810.825  -814.685  -831.276  -839.445  -861.875  -862.79  -865.217  -882.75  -888.223  -888.652  -907.149  -910.482  -935.797  -945.324  -957.78  -964.594  -965.302  -983.698  -1024.08  -1024.18  -1065.45  -1080.62  -1081.25  -1087.9  -1125.32  -1153.97  -1160.41  -1179  -1206.88  -1219.18  -1273.69  -1299.04  -1313.45  -1352.62  -1413.81  -1458.16  -1505.21  -1508.43  -1565  -1573.63  -1614.79  -1624.05  -1791.34  -1837.26  -1902.45  -1903.09  -1942.76  -1981.07  -2215.05  -2273.88  -2332.74  -2371.16  -2690.92  -2768.74  -3237.69  
4  0  0.0277345   2  -2  -1.3441  -8.47433  -37.0993  -41.8491  -54.3691  -59.5315  -81.7285  -90.8924  -92.0463  -110.314  -118.563  -128.712  -131.821  -146.489  -156.522  -165.82  -180.577  -190.671  -198.941  -202.79  -203.418  -227.58  -241.413  -242.953  -245.199  -249.796  -265.694  -268.108  -287.186  -296.376  -298.539  -314.354  -319.53  -325.151  -343.07  -347.644  -351.041  -360.586  -368.529  -380.782  -395.373  -395.648  -406.258  -408.812  -413.827  -421.404  -440.548  -447.065  -449.496  -455.548  -456.904  -485.74  -491.155  -504.057  -507.522  -508.653  -508.95  -535.627  -542.999  -544.129  -552.462  -555.695  -556.735  -588.311  -592.654  -604.703  -610.258  -615.921  -618.707  -620.308  -638.574  -643.921  -651.424  -658.84  -663  -663.347  -687.333  -704.856  -705.822  -715.479  -716.084  -739.81  -743.524  -758.991  -760.913  -762.338  -770.103  -783.314  -789.556  -808.65  -815.629  -828.536  -832.677  -844.076  -873.438  -874.356  -879.284  -901.898  -907.242  -916.332  -918.735  -921.948  -927.835  -943.733  -971.205  -975.832  -982.541  -1030.42  -1030.84  -1066.01  -1069.3  -1084.46  -1099.19  -1112.77  -1154.54  -1164.87  -1173.84  -1210.93  -1221.02  -1278.3  -1285.26  -1331.15  -1349.66  -1399.09  -1443.24  -1495.61  -1520.81  -1553.73  -1580.48  -1607.64  -1641.25  -1774.72  -1821.36  -1884.71  -1920.13  -1930.49  -1999.34  -2196.84  -2255.62  -2316.2  -2391  -2671.05  -2749.51  -3216.27  
5  0  0.0346681   1.51764  -1.51764  -2.03667  -7.3769  -36.5951  -43.4119  -53.6959  -61.8914  -79.9763  -89.247  -89.4039  -110.815  -119.042  -129.32  -136.099  -149.196  -158.712  -164.97  -176.321  -189.929  -194.269  -197.902  -207.104  -224.591  -241.044  -241.194  -250.769  -251.446  -265.921  -279.484  -285.467  -299.064  -303.208  -306.436  -315.915  -331.062  -339.373  -341.101  -350.166  -357.276  -362.082  -387.167  -388.727  -391.466  -407.111  -414.514  -416.588  -425.123  -442.8  -446.512  -456.589  -462.109  -463.137  -479.764  -492.044  -493.083  -501.4  -517.381  -517.683  -533.69  -534.809  -536.307  -551.602  -558.321  -559.501  -579.586  -583.729  -593.802  -620.196  -624.071  -627.283  -628.51  -631.267  -634.228  -641.603  -672.303  -673.015  -679.136  -684.241  -700.766  -719.464  -722.744  -723.491  -726.292  -726.762  -744.982  -768.561  -772.475  -774.493  -777.003  -789.159  -814.298  -820.347  -823.357  -828.4  -834.503  -870.111  -885.073  -886.024  -896.54  -911.696  -921.153  -923.217  -925.856  -931.057  -933.886  -976.667  -985.097  -991.716  -1037.16  -1038.36  -1045.87  -1056  -1100.29  -1103.89  -1118.21  -1148.95  -1157.54  -1187.37  -1203.44  -1235.41  -1257.96  -1297  -1347.04  -1349.59  -1384.44  -1428.44  -1483.25  -1534.34  -1536.58  -1596.16  -1600.91  -1659.04  -1758.2  -1805.71  -1866.5  -1918.97  -1938.04  -2018.01  -2178.79  -2237.55  -2300.25  -2411.16  -2651.41  -2730.68  -3195.16  
6  0  0.0416017   1  -1  -2.81672  -6.30086  -36.1666  -45.1372  -52.5424  -64.2601  -78.4517  -87.0148  -88.3166  -111.705  -117.809  -131.843  -139.993  -149.622  -159.191  -164.296  -177.272  -188.66  -189.311  -193.037  -211.937  -221.525  -237.953  -239.586  -256.527  -256.537  -267.504  -279.798  -292.949  -293.307  -304.756  -308.795  -312.522  -332.783  -334.409  -342.483  -342.892  -355.965  -364.522  -380.61  -381.74  -396.096  -401.637  -422.221  -424.433  -433.876  -437.72  -444.097  -467.978  -469.494  -470.211  -473.991  -476.582  -482.985  -516.735  -518.136  -524.861  -525.72  -527.78  -528.382  -561.47  -562.971  -568.136  -570.949  -574.533  -578.861  -608.163  -620.507  -631.813  -635.266  -637.528  -639.498  -649.869  -677.945  -682.761  -685.378  -696.494  -699.178  -699.534  -710.082  -729.877  -731.7  -732.223  -746.442  -747.967  -761.687  -790.05  -792.188  -802.358  -805.377  -808.93  -821.059  -836.78  -848.479  -860.836  -876.886  -896.778  -896.809  -897.764  -903.1  -939.006  -941.504  -945.507  -948.952  -974.815  -999.328  -1004.01  -1025.65  -1043.19  -1044.51  -1046.85  -1087.85  -1123.71  -1135.64  -1137.63  -1158.71  -1196.55  -1201.01  -1238.06  -1250.01  -1309.07  -1344.75  -1368.64  -1369.87  -1413.8  -1471.21  -1515.57  -1552.5  -1594.58  -1612.05  -1677.4  -1741.78  -1790.27  -1848.62  -1908.06  -1956.18  -2037.08  -2160.9  -2219.69  -2284.87  -2431.63  -2632  -2712.24  -3174.37  
7  0  0.0485354   0.482362  -0.482362  -3.63951  -5.30982  -35.8756  -47.0006  -50.9221  -66.1095  -77.5163  -85.7994  -87.2676  -112.958  -116.086  -134.876  -143.68  -149.114  -152.351  -171.632  -179.696  -184.787  -186.779  -188.267  -216.471  -219.507  -235.257  -237.78  -262.174  -262.421  -269.947  -276.058  -281.098  -304.244  -308.667  -311.653  -314.932  -325.551  -327.865  -332.295  -354.692  -359.941  -366.82  -373.683  -374.762  -386.638  -412.67  -428.886  -430.715  -433.853  -436.444  -449.242  -455.666  -464.824  -473.453  -477.462  -478.212  -490.642  -501.719  -516.398  -517.602  -530.619  -535.791  -539.771  -556.991  -562.492  -566.248  -569.68  -570.696  -584.828  -592.239  -610.797  -622.684  -647.045  -647.454  -653.969  -665.985  -675.93  -678.701  -689.521  -693.225  -695.067  -696.038  -716.408  -720.273  -727.734  -740.72  -741.365  -750.972  -767.007  -782.383  -794.436  -805.596  -807.701  -823.785  -829.422  -839.62  -850.471  -858.209  -868.886  -882.299  -884.506  -908.556  -909.507  -952.323  -954.847  -963.322  -968.292  -973.259  -1005.74  -1013.72  -1016.35  -1030.53  -1052.66  -1056.47  -1075.41  -1122.51  -1143.91  -1156.34  -1161.63  -1190.14  -1214.76  -1218.7  -1264.79  -1321.58  -1342.78  -1355.39  -1388.22  -1399.37  -1459.31  -1497.6  -1568.59  -1588.61  -1628.19  -1696.29  -1725.48  -1775.01  -1831.18  -1897.67  -1974.56  -2056.54  -2143.18  -2202.07  -2270.01  -2452.41  -2612.82  -2694.2  -3153.89  
8  0  0.055469   0  -0  -4.44967  -4.44968  -35.7709  -48.9809  -48.9809  -66.8099  -77.2244  -86.1303  -86.1304  -114.439  -114.44  -136.679  -147.172  -147.174  -148.63  -178.503  -178.504  -184.475  -184.477  -184.813  -218.485  -218.855  -235.517  -235.519  -267.457  -267.461  -269.093  -273.558  -273.566  -307.752  -310.735  -318.012  -318.043  -322.95  -323.098  -323.169  -364.759  -364.791  -367.07  -367.118  -368.793  -382.447  -420.312  -428.677  -428.733  -440.366  -440.441  -441.402  -457.634  -457.961  -468.878  -485.326  -485.362  -485.996  -507.629  -507.85  -508.898  -540.165  -543.457  -543.518  -553.756  -554.948  -558.526  -575.608  -575.733  -577.483  -601.667  -602.02  -613.914  -657.257  -657.388  -658.414  -669.556  -671.517  -681.299  -683.887  -684.942  -702.705  -703.997  -706.225  -708.581  -740.284  -741.322  -750.384  -751.176  -762.542  -783.827  -787.931  -818.449  -823.145  -830.077  -835.583  -843.085  -844.009  -850.168  -863.431  -872.393  -889.619  -920.405  -921.349  -964.684  -966.061  -972.481  -983.582  -986.19  -988.753  -1017.96  -1028  -1028.37  -1061.84  -1062.91  -1067.5  -1109.9  -1161.9  -1164.46  -1178.3  -1183.93  -1200.28  -1228.62  -1279.71  -1334.61  -1340.26  -1341.85  -1385.17  -1408.27  -1447.26  -1480.68  -1583.01  -1584.85  -1644.59  -1709.29  -1715.69  -1759.88  -1814.27  -1887.76  -1993.17  -2076.4  -2125.62  -2184.73  -2255.67  -2473.51  -2593.88  -2676.55  -3133.73  
9  0.00600469  0.0520022   0.414214  -0.414214  -3.75269  -5.18307  -35.8791  -46.9471  -51.0419  -66.1832  -77.4658  -84.9064  -88.04  -113.057  -115.945  -134.105  -147.071  -147.866  -151.116  -174.119  -176.883  -181.99  -187.685  -190.531  -216.847  -219.41  -232.915  -239.712  -256.69  -269.019  -274.503  -275.476  -275.9  -304.432  -308.823  -313.32  -315.111  -322.153  -326.311  -335.183  -357.201  -360.178  -362.599  -370.901  -379.594  -386.082  -414.443  -423.637  -425.457  -437.872  -447.384  -449.414  -454.149  -457.663  -469.645  -476.132  -493.369  -493.806  -499.048  -499.337  -526.408  -526.804  -542.819  -544.357  -551.56  -552.828  -560.695  -574.522  -584.826  -585.777  -593.488  -593.856  -631.182  -637.588  -657.293  -660.586  -667.343  -668.404  -677.427  -678.314  -684.562  -701.103  -713.284  -717.098  -723.792  -729.538  -730.38  -731.239  -761.203  -771.698  -773.924  -777.419  -799.182  -811.002  -826.574  -830.221  -839.638  -842.576  -859.256  -862.791  -878.303  -879.869  -897.753  -932.32  -943.116  -952.531  -966.605  -975.896  -984.757  -985.716  -1004.86  -1005.6  -1037.38  -1044.11  -1050.44  -1076.28  -1097.56  -1138.95  -1155.14  -1165.37  -1167.5  -1193.81  -1242.29  -1292.29  -1317.87  -1326.63  -1349.03  -1370.61  -1415.65  -1430.56  -1468.89  -1559.91  -1599.89  -1659.43  -1692.93  -1727.52  -1742.48  -1798.69  -1865.18  -2009.59  -2091.54  -2106.87  -2165.8  -2233.75  -2491.16  -2572.77  -2654.18  -3110.12  
10  0.0120094  0.0485354   0.732051  -0.732051  -3.2409  -5.77211  -36.1801  -45.0822  -53.0975  -64.7085  -78.0744  -83.663  -90.8069  -112  -117.242  -129.369  -147.644  -150.102  -154.78  -169.688  -172.395  -179.833  -191.144  -199.59  -213.588  -220.836  -230.093  -245.45  -245.581  -268.549  -276.436  -280.933  -281.663  -295.234  -306.788  -308.008  -312.188  -328.024  -330.991  -348.711  -348.774  -353.842  -356.867  -377.368  -388.185  -396.467  -404.275  -412.566  -417.263  -444.124  -451.001  -454.31  -456.512  -458.668  -458.769  -487.995  -490.243  -490.558  -501.832  -502.511  -511.938  -534.453  -536.35  -544.242  -546.046  -557.65  -558.679  -585.442  -585.834  -589.876  -596.567  -597.647  -618.132  -643.28  -647.125  -648.791  -664.948  -674.57  -674.82  -678.902  -679.871  -711.224  -717.645  -719.213  -720.276  -723.75  -727.495  -740.718  -762.716  -766.671  -772.109  -780.24  -782.751  -792.07  -818.92  -825.476  -833.489  -845.795  -855.685  -871.408  -874.496  -876.082  -894.252  -920.188  -933.171  -944.299  -947.922  -981.778  -982.611  -983.621  -989.937  -993.294  -1021.12  -1037.88  -1046.68  -1085.82  -1091.75  -1116.26  -1132.29  -1146.85  -1170.91  -1188.28  -1256.07  -1294.98  -1305.01  -1312.31  -1356.27  -1363.96  -1413.72  -1423.51  -1458.15  -1537.17  -1615.09  -1674.53  -1676.68  -1725.22  -1739.85  -1783.62  -1843.07  -2026.25  -2088.29  -2107.07  -2147.14  -2212.34  -2509.13  -2551.89  -2632.2  -3086.82  
11  0.0180141  0.0450685   0.931852  -0.931852  -2.92855  -6.15513  -36.5545  -43.6923  -54.9023  -63.087  -78.8304  -82.5513  -93.3437  -111.302  -118.12  -125.553  -147.562  -153.522  -158.456  -165.728  -168.056  -178.347  -194.163  -208.774  -210.44  -222.429  -227.412  -235.589  -250.278  -269.407  -276.947  -287.037  -287.15  -287.905  -300.417  -301.225  -316.506  -333.767  -334.423  -342.485  -347.882  -351.68  -362.704  -384.186  -391.36  -395.109  -402.602  -409.381  -410.882  -438.91  -444.752  -450.5  -464.585  -465.605  -470.047  -481.751  -482.089  -497.31  -500.819  -510.237  -511.241  -524.904  -527.763  -532.476  -561.868  -563.759  -565.055  -578.83  -579.168  -598.995  -603.164  -608.122  -613.677  -629.136  -633.407  -646.316  -666.714  -674.419  -674.55  -688.277  -689.387  -692.198  -708.769  -709.86  -731.682  -735.353  -739.482  -752.186  -755.928  -758.155  -762.243  -773.45  -783.268  -793.328  -806.992  -815.44  -836.451  -845.294  -851.492  -854.343  -864.226  -893.406  -897.464  -910.933  -914.28  -929.537  -956.344  -959.035  -979.993  -982.946  -983.978  -998.446  -1001.19  -1025.36  -1056.14  -1074.55  -1093.93  -1108.01  -1109.76  -1128.77  -1174.69  -1183.3  -1269.98  -1272.39  -1298.08  -1317.91  -1342.14  -1379.34  -1397.01  -1431.9  -1448.21  -1514.8  -1630.46  -1660.54  -1689.88  -1708.12  -1752.73  -1769.01  -1821.49  -2043.15  -2069.87  -2122.99  -2128.73  -2191.46  -2527.4  -2531.25  -2610.61  -3063.83  
12  0.0240188  0.0416017   1  -1  -2.82357  -6.28814  -36.7408  -43.1545  -55.7441  -62.2818  -79.2587  -82.0083  -94.4149  -111.042  -118.43  -124.077  -147.55  -155.409  -160.923  -163.688  -165.349  -177.814  -195.528  -209.002  -214.825  -221.439  -227.954  -229.372  -252.149  -270.754  -277.066  -282.981  -292.141  -293.373  -295.363  -295.599  -319.064  -334.196  -337.446  -341.724  -344.134  -348.906  -376.462  -377.192  -389.871  -396.608  -400.501  -404.745  -423.898  -424.617  -444.608  -449.95  -472.173  -472.78  -474.183  -474.645  -482.672  -483.849  -512.02  -514.837  -517.316  -519.688  -520.594  -522.332  -567.663  -567.95  -574.689  -574.88  -580.272  -581.336  -615.077  -616.442  -619.973  -620.809  -628.238  -631.378  -673.441  -674.207  -674.364  -684.966  -698.344  -698.403  -699.601  -699.656  -739.636  -742.305  -743.592  -746.493  -747.891  -755.438  -755.864  -775.941  -794.549  -794.863  -804.405  -804.684  -828.84  -840.688  -840.92  -858.059  -858.754  -875.018  -895.83  -911.174  -911.624  -928.161  -936.594  -968.353  -968.414  -976.094  -983.073  -983.093  -1012.91  -1013.28  -1063.3  -1065.95  -1072.31  -1087.57  -1111.28  -1124.88  -1178.75  -1178.86  -1250.13  -1283.94  -1283.98  -1328.16  -1331.03  -1380.62  -1395.04  -1438.9  -1440.9  -1492.82  -1644.51  -1645.99  -1691.24  -1705.44  -1754.72  -1766.17  -1800.52  -2051.61  -2060.28  -2110.53  -2139.31  -2171.15  -2510.83  -2546  -2589.42  -3041.16  
