#index kx_value ky_value E0(k)  E1(k)   E2(k) .....
0  0  0   3  -3  0  -32.8584  -61.7293  -61.7293  -88.9577  -88.9577  -143.473  -190.668  -190.668  -194.464  -194.464  -198.068  -221.454  -248.86  -270.75  -270.75  -311.661  -311.661  -356.194  -410.091  -413.948  -413.948  -420.074  -420.074  -422.275  -476.016  -476.016  -477.22  -478.658  -478.658  -486.382  -572.577  -581.325  -581.325  -599.145  -599.145  -610.571  -723.549  -724.197  -724.197  -725.627  -725.627  -726.45  -789.254  -792.399  -792.399  -799.039  -799.039  -802.702  -838.171  -841.073  -841.073  -846.344  -846.344  -849.008  -992.427  -994.258  -994.258  -997.964  -997.964  -999.865  -1124.36  -1124.54  -1124.54  -1124.91  -1124.91  -1125.09  -1181.45  -1181.96  -1181.96  -1183  -1183  -1183.53  -1276.32  -1278.65  -1278.65  -1284.72  -1284.72  -1291.09  -1294.59  -1300.57  -1300.57  -1305.84  -1305.84  -1307.76  -1523.57  -1523.8  -1523.8  -1524.25  -1524.25  -1524.48  -1610.27  -1610.32  -1610.32  -1610.42  -1610.42  -1610.46  -1680.53  -1680.73  -1680.73  -1681.13  -1681.13  -1681.33  -1726.22  -1726.45  -1726.45  -1726.89  -1726.9  -1727.12  -1869.77  -1870.55  -1870.56  -1872.35  -1872.35  -1873.43  -1885.17  -1886.18  -1886.18  -1887.83  -1887.83  -1888.54  -2171.98  -2172  -2172  -2172.05  -2172.05  -2172.08  -2187.56  -2187.58  -2187.58  -2187.61  -2187.64  -2187.66  -2244.71  -2244.76  -2244.77  -2244.84  -2244.88  -2244.91  -2345.87  -2346.04  -2346.07  -2346.41  -2346.44  -2346.62  -2362.9  -2363.06  -2363.09  -2363.38  -2363.43  -2363.57  -2577.99  -2578.1  -2578.12  -2578.33  -2578.35  -2578.46  -2593.83  -2593.93  -2593.94  -2594.14  -2594.16  -2594.26  -2850.58  -2850.58  -2850.62  -2850.62  -2851.4  -2851.4  -2920.76  -2920.77  -2920.8  -2920.82  -2922.8  -2922.8  -2938.97  -2939.04  -2939.05  -2939.12  -2939.16  -2939.2  -2966.28  -2966.3  -2966.42  -2966.44  -2972.5  -2972.5  -3117.39  -3117.6  -3117.67  -3117.9  -3120.84  -3120.98  -3121.12  -3121.33  -3121.95  -3122  -3126.29  -3126.3  -3404.08  -3404.1  -3405.81  -3405.84  -3405.87  -3405.88  -3420.18  -3420.2  -3422.96  -3422.97  -3423  -3423.01  -3605.13  -3605.13  -3605.71  -3605.71  -3662.03  -3662.03  -3665  -3665  -3763.38  -3763.38  -3766.5  -3766.5  -3780.25  -3780.26  -3786.06  -3786.06  -3824.61  -3824.62  -3829.27  -3829.28  -3829.32  -3829.32  -4003.49  -4003.62  -4003.92  -4004.05  -4007.54  -4007.54  -4008.11  -4008.11  -4350.1  -4350.1  -4361.27  -4361.27  -4364.4  -4364.4  -4367.3  -4367.3  -4445.41  -4445.41  -4515.51  -4515.52  -4560.77  -4560.79  -4712.1  -4712.18  -4715.52  -4715.59  -4832.6  -4832.6  -5007.21  -5007.25  -5011.71  -5011.75  -5377.23  -5377.24  -5423.64  -5423.64  -5433.98  -5434.02  -5535.32  -5535.37  -5552.14  -5552.17  -5775.39  -5775.82  -5780.64  -5781.07  -6132.98  -6132.98  -6394.74  -6394.79  -6464.78  -6464.81  -6509.95  -6509.96  -6661.36  -6664.76  -6667.48  -6670.9  -6960.73  -6960.77  -7503.8  -7503.87  -7560.5  -7560.67  -7661.84  -7669.07  -7678.61  -7686.14  -7906.94  -7907.37  -8698.58  -8698.72  -8768.56  -8776.62  -8813.66  -8825.12  -8971.04  -8974.46  -9984.89  -9989.94  -10041.6  -10064.8  -10149.9  -10167  -11357  -11386.9  -11434.7  -11483.2  -12825.3  -12900  -14399.3  
1  0  0.00648023   2.96962  -2.96962  -0.096635  -32.4337  -61.5739  -62.1327  -89.0844  -89.3545  -143.604  -185.072  -187.401  -194.797  -197.818  -202.515  -222.891  -246.847  -270.294  -272.508  -311.463  -312.504  -357.425  -399.94  -409.132  -410.819  -422.616  -424.881  -433.279  -463.973  -470.232  -473.302  -484.862  -486.567  -495.181  -564.181  -577.76  -586.276  -595.488  -603.157  -618.359  -705.324  -715.115  -715.302  -734.77  -734.81  -744.807  -774.273  -785.15  -787.612  -804.172  -805.636  -816.934  -823.502  -834.34  -835.248  -852.56  -854.446  -864.905  -974.801  -978.491  -996.24  -996.315  -1014.05  -1017.73  -1100.27  -1112.44  -1112.45  -1137.02  -1137.03  -1149.46  -1158.02  -1170.38  -1170.43  -1194.92  -1194.95  -1207.22  -1255.91  -1265.57  -1271.88  -1279.14  -1287.11  -1287.72  -1297.34  -1298.15  -1306.07  -1313.59  -1319.85  -1328.94  -1499.43  -1499.88  -1524.16  -1524.16  -1548.45  -1548.9  -1580.99  -1595.67  -1595.67  -1625.19  -1625.19  -1640.03  -1651.55  -1665.93  -1665.94  -1695.44  -1695.44  -1697.31  -1710.57  -1712.5  -1712.5  -1741.98  -1741.99  -1756.31  -1843.13  -1845.5  -1859.75  -1860.89  -1870.37  -1870.37  -1888.38  -1888.39  -1897.76  -1899.04  -1913.35  -1915.57  -2142.65  -2142.71  -2153.29  -2170.24  -2170.29  -2172.28  -2172.29  -2201.58  -2201.63  -2204.86  -2204.86  -2210.49  -2222.22  -2227.77  -2227.83  -2262.2  -2262.2  -2279.42  -2311.92  -2326.72  -2326.81  -2328.95  -2348.58  -2348.69  -2361.18  -2361.18  -2380.82  -2383.01  -2383.06  -2397.88  -2545.88  -2546.18  -2562.54  -2562.69  -2576.89  -2576.96  -2595.6  -2595.61  -2609.84  -2610  -2626.4  -2626.68  -2811.38  -2830.94  -2831.77  -2870.32  -2870.37  -2881.58  -2890.91  -2900.75  -2902.68  -2904.84  -2905.09  -2927.21  -2938.75  -2938.83  -2940.59  -2940.6  -2947.26  -2953.4  -2962.27  -2973.59  -2973.71  -2986.57  -2986.7  -3011.95  -3078.47  -3081.91  -3089.99  -3094.7  -3109.61  -3114.44  -3129.36  -3129.44  -3148.97  -3149.06  -3161.37  -3165.74  -3366.98  -3368.18  -3383.79  -3387.19  -3402.8  -3405.83  -3421.75  -3423.27  -3441.89  -3441.94  -3460.91  -3460.96  -3561.54  -3582.99  -3620.86  -3627.29  -3627.87  -3640.08  -3684.37  -3687.32  -3722.36  -3738.96  -3741.95  -3760.71  -3783.26  -3785.4  -3786.67  -3790.1  -3805.01  -3810.49  -3824.76  -3829.47  -3868.73  -3868.77  -3963.39  -3963.97  -3969.51  -3993.97  -4013.88  -4017.82  -4038.36  -4042.35  -4308.65  -4320.28  -4325.41  -4347.98  -4366.39  -4369.68  -4400.71  -4403.84  -4420.86  -4470.08  -4490.65  -4536.74  -4539.89  -4585.97  -4679.55  -4699.15  -4728.84  -4748.45  -4788.49  -4832.69  -4968.02  -4997.5  -5021.8  -5051.15  -5350.16  -5379.53  -5404.32  -5407.1  -5418.82  -5461.28  -5505.97  -5527.68  -5560.16  -5581.86  -5736.44  -5760.9  -5795.9  -5820.23  -6088.88  -6123.22  -6365.26  -6424.38  -6435  -6480.99  -6494.1  -6540.07  -6623.87  -6643.47  -6689.16  -6708.58  -6916.68  -6946.03  -7471.81  -7528.7  -7535.87  -7592.86  -7627.56  -7649.23  -7698.89  -7720.65  -7863.14  -7887.47  -8664.18  -8733.24  -8733.86  -8779.78  -8810.9  -8860.1  -8928.73  -8948.16  -9947.97  -10004.9  -10026.9  -10101.9  -10110.8  -10132.5  -11317.6  -11395.1  -11426.4  -11444.3  -12783.5  -12858.4  -14355.2  
2  0  0.0129605   2.87939  -2.87939  -0.385366  -31.2466  -61.1245  -63.2543  -89.4495  -90.545  -143.946  -177.544  -182.859  -193.161  -202.609  -209.459  -227.015  -242.172  -268.958  -276.407  -311.035  -315.055  -360.92  -386.666  -402.178  -402.995  -430.39  -431.789  -447.375  -450.572  -463.753  -466.911  -492.615  -494.676  -509.124  -551.866  -568.371  -589.542  -593.594  -613.912  -631.346  -686.153  -705.457  -705.613  -744.755  -744.765  -756.031  -764.8  -774.885  -776.777  -805.122  -813.098  -813.83  -827.001  -827.59  -835.865  -864.237  -865.91  -884.242  -955.869  -959.6  -996.726  -996.751  -1033.84  -1037.53  -1076.1  -1100.18  -1100.18  -1133.9  -1149.34  -1149.34  -1158.67  -1158.71  -1174.45  -1207.77  -1207.78  -1232.16  -1232.77  -1246.01  -1254.61  -1258.83  -1282.68  -1282.72  -1303.52  -1303.61  -1326.86  -1331.77  -1340.63  -1353.08  -1475.33  -1475.78  -1524.58  -1524.58  -1551.88  -1573.38  -1573.83  -1581.08  -1581.08  -1622.47  -1640.12  -1640.12  -1650.51  -1650.52  -1668.24  -1669.96  -1699.41  -1699.42  -1709.53  -1709.53  -1740.49  -1758.4  -1758.41  -1786.21  -1815.31  -1818.1  -1834.65  -1835.37  -1867.16  -1867.16  -1892.48  -1892.48  -1924.11  -1924.97  -1941.61  -1944.26  -2113.54  -2113.64  -2119.29  -2153.14  -2153.19  -2172.59  -2172.59  -2176.47  -2211.13  -2211.19  -2222.03  -2222.03  -2231.55  -2231.59  -2257.07  -2277.9  -2279.99  -2279.99  -2294.88  -2304.83  -2304.92  -2314.27  -2337.1  -2337.21  -2373.69  -2373.69  -2405.95  -2405.96  -2415.73  -2432.72  -2513.27  -2513.62  -2532.1  -2532.21  -2573.92  -2574  -2599.41  -2599.41  -2641.15  -2641.25  -2659.8  -2660.13  -2772.42  -2811.43  -2812.25  -2842.62  -2870.61  -2870.75  -2880.58  -2882.78  -2888.28  -2890.18  -2890.23  -2929.04  -2930.69  -2934.95  -2939.65  -2939.89  -2959.29  -2959.33  -3001.98  -3007.19  -3007.29  -3009.2  -3009.31  -3039.52  -3042.97  -3051.68  -3061.16  -3065.98  -3099.96  -3104.73  -3139.89  -3139.97  -3178.67  -3178.76  -3201.11  -3205.48  -3329.48  -3330.28  -3348.34  -3352.16  -3399.88  -3403.68  -3425.5  -3426.26  -3477.75  -3477.8  -3499.62  -3499.67  -3517.66  -3560.86  -3576.99  -3618.5  -3649.46  -3650.05  -3678.5  -3698.1  -3707.09  -3710  -3712.09  -3744.28  -3746.48  -3751.15  -3800.68  -3804.49  -3825.16  -3829.9  -3832.93  -3838  -3908.45  -3908.49  -3919.54  -3920.13  -3935.54  -3984.49  -4024.2  -4028.14  -4073.16  -4077.14  -4266.76  -4276.43  -4284.5  -4344.73  -4371.78  -4373.73  -4396.41  -4440.44  -4443.55  -4465.36  -4494.86  -4513.8  -4563.82  -4612.26  -4645.8  -4684.56  -4744.31  -4744.65  -4783.07  -4833.06  -4929.09  -4988.06  -5032.14  -5090.84  -5323.11  -5335.69  -5380.6  -5414.26  -5431.42  -5474.18  -5488.93  -5506.36  -5582.51  -5614.68  -5697.56  -5746.48  -5811.24  -5859.87  -6045.06  -6113.72  -6335.9  -6404.78  -6453.14  -6454.09  -6522.95  -6571.29  -6585.2  -6623.95  -6709.65  -6748.04  -6872.89  -6931.59  -7439.84  -7497.27  -7567.89  -7590.84  -7622.99  -7625.46  -7726.31  -7758.23  -7819.41  -7868.05  -8629.89  -8698.71  -8747.01  -8767.9  -8844.85  -8885.23  -8896.09  -8923.63  -9911.08  -9968.59  -10064  -10069.3  -10101.2  -10139.5  -11278.5  -11355.3  -11406.5  -11466.2  -12741.9  -12817.2  -14311.3  
3  0  0.0194407   2.73205  -2.73205  -0.862607  -29.4996  -60.4263  -64.8921  -90.0107  -92.5243  -144.312  -170.323  -178.293  -190.91  -207.533  -215.874  -233.405  -236.553  -266.861  -280.765  -310.73  -319.326  -366.223  -373.171  -395.043  -395.458  -437.178  -437.73  -438.892  -457.791  -461.035  -462.232  -500.799  -502.85  -523.94  -539.309  -556.827  -591.4  -593.823  -627.488  -645.53  -667.224  -695.883  -696.054  -737.587  -754.73  -754.741  -764.104  -765.918  -785.103  -786.912  -816.054  -816.343  -826.141  -826.539  -855.223  -876.744  -878.664  -904.202  -937.19  -940.941  -997.501  -997.517  -1052.2  -1053.99  -1057.66  -1087.93  -1087.94  -1110.04  -1147.28  -1147.32  -1161.7  -1161.71  -1199.72  -1209.49  -1220.93  -1220.96  -1224.69  -1236.71  -1239.02  -1257.4  -1278.07  -1278.08  -1309.96  -1309.99  -1348.23  -1351.32  -1363.53  -1377.85  -1451.52  -1451.97  -1523.04  -1525.27  -1525.27  -1566.6  -1566.6  -1593.65  -1598.58  -1599.03  -1634.75  -1634.78  -1639.45  -1655.16  -1655.16  -1687.33  -1687.33  -1700.16  -1723.29  -1723.29  -1770.66  -1775.8  -1775.83  -1787.33  -1790.38  -1810.19  -1810.66  -1816.39  -1863.5  -1863.51  -1897.6  -1897.6  -1950.27  -1950.86  -1970.73  -1973.65  -2084.34  -2084.84  -2085.93  -2135.97  -2136.02  -2142.72  -2173.23  -2173.24  -2194.87  -2194.93  -2239.32  -2239.32  -2244.15  -2261.14  -2261.7  -2261.74  -2282.37  -2282.47  -2292.21  -2298.15  -2298.15  -2326.86  -2326.96  -2349.39  -2385.67  -2385.67  -2430.14  -2430.14  -2450.84  -2467.83  -2480.47  -2480.84  -2502.4  -2502.49  -2570.41  -2570.5  -2604.31  -2604.31  -2672.25  -2672.32  -2693.96  -2694.32  -2733.73  -2792.02  -2792.83  -2803.94  -2836.86  -2837.03  -2849.64  -2859.87  -2862.23  -2910.15  -2910.2  -2912.07  -2917.99  -2940.29  -2940.38  -2970.75  -2977.96  -2978.01  -3000.85  -3004.29  -3030.13  -3030.24  -3032.58  -3037.48  -3041.73  -3043.68  -3044.14  -3090.64  -3091.68  -3095.4  -3150.67  -3150.76  -3208.72  -3208.8  -3241.12  -3245.49  -3291.78  -3292.31  -3313.64  -3317.74  -3396.42  -3400.58  -3430.33  -3430.77  -3474.04  -3513.56  -3513.61  -3533.4  -3538.76  -3538.92  -3538.98  -3597.28  -3634.9  -3654.53  -3671.66  -3672.26  -3684.7  -3707.77  -3712.47  -3729.13  -3730.17  -3733.01  -3817.56  -3821.54  -3825.98  -3830.69  -3862.01  -3866.84  -3875.97  -3876.56  -3901.85  -3948.45  -3948.49  -3975.28  -4034.81  -4038.74  -4108.24  -4112.2  -4224.55  -4232.85  -4244.47  -4341.16  -4372.08  -4377.44  -4378.66  -4439.74  -4480.43  -4483.54  -4491.86  -4519.76  -4587.42  -4612.3  -4639.53  -4670.3  -4701.08  -4760.03  -4818.03  -4833.69  -4890.43  -4978.89  -5042.77  -5130.82  -5292.13  -5296.09  -5354.46  -5409.98  -5441.86  -5458.54  -5486.25  -5516.93  -5604.33  -5648.72  -5658.96  -5732.33  -5826.85  -5899.8  -6001.51  -6104.51  -6306.64  -6374.23  -6426.27  -6483.91  -6546.78  -6551.48  -6603.5  -6604.77  -6730.39  -6787.83  -6829.37  -6917.43  -7407.89  -7466.21  -7553.59  -7597.97  -7599.94  -7658.44  -7753.19  -7775.96  -7797.05  -7848.92  -8595.71  -8663.24  -8715.23  -8802.7  -8841.98  -8878.56  -8899.43  -8933.01  -9874.2  -9932.65  -10027.3  -10071.1  -10101.2  -10177.5  -11239.4  -11315.1  -11369.6  -11506.2  -12700.3  -12776.4  -14267.6  
4  0  0.0259209   2.53209  -2.53209  -1.52216  -27.4087  -59.543  -66.8438  -90.7058  -95.271  -144.276  -163.978  -173.782  -188.586  -212.342  -221.612  -230.919  -241.401  -264.265  -284.908  -310.841  -325.217  -359.818  -372.832  -387.889  -388.072  -424.389  -443.885  -445.075  -453.24  -456.304  -477.493  -509.339  -511.281  -527.003  -539.095  -544.999  -593.197  -595.012  -642.121  -648.561  -660.34  -686.384  -686.604  -719.299  -752.449  -754.55  -765.139  -765.212  -769.088  -805.676  -811.398  -811.594  -833.357  -833.637  -874.819  -890.052  -892.624  -918.807  -922.574  -924.553  -998.585  -998.599  -1028.58  -1074.43  -1075.72  -1075.74  -1078.1  -1086.47  -1136.23  -1136.28  -1174.08  -1174.08  -1186.32  -1202.49  -1218.94  -1220.27  -1225.26  -1234.46  -1234.47  -1273.8  -1273.81  -1282.91  -1316.75  -1316.76  -1369.37  -1371.44  -1387.71  -1403.06  -1427.98  -1428.43  -1494.49  -1526.22  -1526.22  -1552.24  -1552.24  -1565.11  -1610.88  -1618.86  -1618.88  -1624.06  -1624.51  -1670.3  -1670.3  -1676.09  -1676.1  -1730.64  -1736.87  -1736.87  -1759.35  -1762.57  -1786.3  -1786.6  -1794.04  -1794.05  -1801.16  -1846.84  -1859.83  -1859.83  -1903.34  -1903.34  -1976.38  -1976.79  -2000.48  -2003.58  -2051.81  -2056.31  -2056.44  -2109.25  -2118.83  -2118.88  -2173.9  -2173.91  -2179.2  -2179.25  -2210.68  -2227.68  -2256.63  -2256.63  -2259.99  -2260.08  -2292.13  -2292.17  -2316.63  -2316.63  -2317.29  -2317.38  -2327.61  -2384.79  -2397.71  -2397.72  -2447.63  -2448.03  -2454.97  -2454.97  -2473.29  -2473.37  -2486.23  -2503.22  -2566.84  -2566.93  -2609.83  -2609.83  -2695.31  -2703.32  -2703.37  -2728.7  -2729.09  -2765.53  -2772.71  -2773.51  -2803.31  -2803.57  -2811.32  -2838.99  -2841.54  -2895.9  -2901.66  -2930.22  -2930.27  -2941.23  -2941.31  -2962.45  -2965.89  -2996.47  -2996.51  -3004.3  -3009.28  -3011.08  -3053.35  -3053.46  -3078.83  -3079.03  -3081.63  -3082.7  -3086.38  -3131.96  -3161.75  -3161.84  -3239.06  -3239.15  -3254.04  -3254.42  -3279.52  -3281.42  -3283.8  -3285.77  -3392.89  -3397.22  -3430.7  -3435.79  -3436.08  -3490.08  -3516.69  -3549.44  -3549.49  -3576.4  -3578.71  -3578.76  -3591.59  -3611.24  -3657.35  -3669.4  -3674.06  -3693.9  -3694.51  -3714.58  -3753.59  -3756.34  -3826.7  -3831.41  -3832.67  -3833.26  -3834.82  -3838.95  -3868.45  -3891.76  -3896.41  -3966.36  -3988.72  -3988.76  -4045.69  -4049.63  -4143.6  -4147.54  -4182.18  -4189.55  -4205.14  -4337.59  -4347.85  -4383.39  -4384.13  -4413.95  -4470.77  -4520.7  -4523.81  -4544.75  -4579.1  -4610.85  -4656.34  -4657.79  -4667.66  -4776.04  -4834.6  -4852.05  -4853.29  -4970  -5053.67  -5171.07  -5248.84  -5269.09  -5328.66  -5405.98  -5409.62  -5466.78  -5485.7  -5545.28  -5620.64  -5626.22  -5683.4  -5718.46  -5842.74  -5940.01  -5958.24  -6095.57  -6277.49  -6343.51  -6400.26  -6508.65  -6513.83  -6579.82  -6585.88  -6636.56  -6751.42  -6786.13  -6827.93  -6903.54  -7375.98  -7435.49  -7516.41  -7573.58  -7632.01  -7691.78  -7732.79  -7780.11  -7830.06  -7836.52  -8561.64  -8627.59  -8684.3  -8799.03  -8837.61  -8875.54  -8912.13  -8970.76  -9837.36  -9897.08  -9985.28  -10041.7  -10138.5  -10215.9  -11200.5  -11274.9  -11333.5  -11546.6  -12658.9  -12736.1  -14224.3  
5  0  0.0324012   2.28558  -2.28558  -2.35487  -25.1475  -58.5446  -68.9701  -91.4566  -98.7372  -143.039  -159.27  -169.339  -186.525  -216.172  -226.449  -226.947  -249.867  -261.931  -288.723  -311.513  -332.418  -346.811  -379.593  -380.79  -381.4  -412.05  -443.624  -446.677  -455.36  -456.709  -493.017  -514.412  -518.94  -519.955  -533.035  -554.894  -595.293  -596.86  -630.174  -657.345  -675.498  -676.933  -677.357  -701.267  -740.529  -743.608  -751.947  -775.303  -775.345  -806.287  -806.435  -826.519  -841.686  -841.928  -894.137  -900.736  -904.058  -904.52  -907.961  -945.234  -999.984  -999.999  -1005.23  -1062.78  -1063.59  -1063.95  -1095.17  -1098.83  -1125.44  -1125.52  -1163.35  -1180.01  -1186.5  -1186.51  -1201.58  -1202.39  -1248.08  -1248.12  -1251.14  -1269.97  -1269.97  -1308.7  -1323.95  -1323.97  -1390.48  -1391.97  -1404.73  -1405.17  -1412.7  -1428.62  -1466.2  -1527.4  -1527.4  -1536.82  -1538.04  -1538.06  -1582.63  -1602.91  -1602.91  -1649.81  -1650.26  -1665.56  -1665.57  -1685.55  -1685.55  -1731.49  -1734.8  -1750.41  -1750.41  -1761.4  -1762.87  -1763.08  -1813  -1813.01  -1831.89  -1856.3  -1856.3  -1877.57  -1909.55  -1909.55  -2002.55  -2002.85  -2018.65  -2028.06  -2028.14  -2030.74  -2033.93  -2076.06  -2101.73  -2101.79  -2163.01  -2163.07  -2175.64  -2175.65  -2177.49  -2194.49  -2237.89  -2237.99  -2273.99  -2273.99  -2308.13  -2308.22  -2322.79  -2322.83  -2335.48  -2335.48  -2363.3  -2410.05  -2410.05  -2414.88  -2415.29  -2420.46  -2444.65  -2444.73  -2480.25  -2480.26  -2521.89  -2538.89  -2563.39  -2563.47  -2615.8  -2615.8  -2657.16  -2727.39  -2734.47  -2734.51  -2753.5  -2754.27  -2763.91  -2764.31  -2769.78  -2770.37  -2773.54  -2818.09  -2820.82  -2880.44  -2886.03  -2924.33  -2927.77  -2942.44  -2942.52  -2950.39  -2950.44  -2976.33  -2981.39  -3014.93  -3014.98  -3051.68  -3072.92  -3077.25  -3077.37  -3077.66  -3114.61  -3114.68  -3123.16  -3172.52  -3173.14  -3173.23  -3216.38  -3216.65  -3245.88  -3250.28  -3269.69  -3269.78  -3321.98  -3326.33  -3387.63  -3389.47  -3393.91  -3441.7  -3441.9  -3447.03  -3494.67  -3548.54  -3555.81  -3568.21  -3585.46  -3585.51  -3618.9  -3618.96  -3629.87  -3631.71  -3635.93  -3700.5  -3716.18  -3716.81  -3777.3  -3779.94  -3789.65  -3790.23  -3827.94  -3832.88  -3835.33  -3851.89  -3856.35  -3921.97  -3926.48  -3957.72  -4029.27  -4029.31  -4056.86  -4060.8  -4139.8  -4146.52  -4166.37  -4179.24  -4183.16  -4323.72  -4334.15  -4388.11  -4389.61  -4390.03  -4450.38  -4546.2  -4561.25  -4564.35  -4569.85  -4614.77  -4634.23  -4642.67  -4696.49  -4792.36  -4813.95  -4835.77  -4888.84  -4961.39  -5064.84  -5205.83  -5211.6  -5242.15  -5303.15  -5377.65  -5402.24  -5447.77  -5512.9  -5573.91  -5582.6  -5648.4  -5704.87  -5718.54  -5858.92  -5915.25  -5980.5  -6086.9  -6248.44  -6312.75  -6374.95  -6470.82  -6543.84  -6567.28  -6608.12  -6670.34  -6743.17  -6772.76  -6868.31  -6889.93  -7344.11  -7405.06  -7479.52  -7549.65  -7664.13  -7689.9  -7725.45  -7807.3  -7811.48  -7876.45  -8527.66  -8591.9  -8654.08  -8756.38  -8851.94  -8872.65  -8945.68  -9009.23  -9800.56  -9861.83  -9943.55  -10012.7  -10176  -10254.7  -11161.7  -11234.6  -11298.1  -11587.2  -12617.6  -12696.2  -14181.2  
