#index kx_value ky_value E0(k)  E1(k)   E2(k) .....
0  0  0   3  -3  0  -16.5891  -52.2206  -52.2206  -75.759  -75.759  -113.684  -145.219  -145.219  -146.769  -146.769  -159.804  -181.251  -187.402  -212.747  -212.747  -252.908  -252.908  -297.581  -300.89  -306.14  -306.14  -309.013  -309.676  -309.676  -362.047  -362.047  -363.509  -363.509  -370.77  -377.202  -429.157  -443.088  -443.088  -468.5  -468.5  -487.4  -524.001  -524.429  -524.429  -525.547  -525.547  -526.404  -579.753  -582.654  -582.654  -587.045  -587.045  -588.587  -635.529  -635.529  -635.905  -636.702  -636.702  -638.754  -733.532  -737.408  -737.408  -745.055  -745.055  -749.028  -807.953  -808.126  -808.126  -808.443  -808.443  -808.59  -861.405  -861.957  -861.957  -863.129  -863.129  -863.756  -932.435  -934.6  -934.6  -939.397  -939.397  -942.268  -960.247  -962.4  -962.4  -965.732  -965.732  -967.155  -1111.86  -1112.45  -1112.45  -1113.65  -1113.65  -1114.25  -1153.96  -1154.02  -1154.02  -1154.15  -1154.15  -1154.21  -1212.02  -1212.19  -1212.19  -1212.54  -1212.54  -1212.71  -1261.72  -1262.01  -1262.02  -1262.6  -1262.6  -1262.9  -1356.96  -1358.21  -1358.22  -1361.49  -1361.49  -1364.67  -1367.62  -1370.59  -1370.59  -1373.46  -1373.47  -1374.52  -1563.66  -1563.69  -1563.7  -1563.75  -1563.81  -1563.83  -1572.27  -1572.29  -1572.29  -1572.31  -1572.31  -1572.32  -1617.38  -1617.44  -1617.45  -1617.58  -1617.6  -1617.66  -1691.74  -1691.88  -1691.9  -1692.19  -1692.22  -1692.36  -1717.23  -1717.36  -1717.38  -1717.64  -1717.67  -1717.79  -1860.52  -1860.8  -1860.82  -1861.41  -1861.43  -1861.75  -1871.88  -1872.17  -1872.18  -1872.73  -1872.74  -1872.99  -2035.88  -2035.88  -2035.96  -2035.96  -2036.97  -2036.97  -2093.72  -2093.73  -2093.76  -2093.77  -2096.79  -2096.79  -2116.73  -2116.79  -2116.8  -2116.88  -2116.92  -2116.97  -2143.37  -2143.42  -2143.49  -2143.54  -2151.52  -2151.52  -2243.42  -2243.6  -2243.65  -2243.83  -2250.14  -2250.22  -2250.55  -2250.76  -2250.8  -2250.93  -2259.74  -2259.74  -2447.33  -2447.4  -2449.81  -2449.88  -2449.91  -2449.94  -2459.15  -2459.21  -2463.8  -2463.82  -2463.96  -2463.98  -2571.83  -2571.83  -2572.74  -2572.74  -2625.17  -2625.17  -2628.67  -2628.67  -2699.57  -2699.59  -2704.27  -2704.27  -2724.8  -2724.81  -2733.95  -2733.95  -2746.17  -2746.21  -2753.41  -2753.45  -2753.49  -2753.49  -2873.95  -2874.03  -2875.09  -2875.17  -2880.29  -2880.29  -2881.9  -2881.9  -3120.68  -3120.69  -3131.88  -3131.89  -3134.64  -3134.64  -3137.28  -3137.28  -3170.05  -3170.05  -3227.77  -3227.79  -3277.12  -3277.15  -3377.34  -3377.39  -3384.38  -3384.42  -3466.15  -3466.15  -3587.35  -3587.48  -3594.96  -3595.09  -3832.1  -3832.12  -3885.27  -3885.32  -3886.62  -3886.64  -3959.66  -3959.69  -3984.8  -3984.85  -4133.92  -4135.05  -4142.53  -4143.64  -4391.47  -4391.48  -4556.39  -4556.44  -4614.03  -4614.08  -4663.27  -4663.61  -4763.53  -4770.53  -4773.44  -4780.22  -4980.77  -4980.9  -5344.53  -5344.56  -5397.63  -5398.7  -5471.97  -5483.53  -5497.06  -5508.66  -5654.5  -5655.61  -6194.9  -6195.59  -6252.48  -6264.87  -6301.93  -6320.49  -6411.53  -6418.31  -7109.07  -7116.93  -7163.11  -7197.23  -7247.72  -7272.86  -8086.12  -8124.89  -8155.16  -8210.76  -9133.39  -9213.5  -10267.1  
1  0  0.0143794   2.73205  -2.73205  -0.507128  -15.3676  -51.6411  -53.6771  -75.8132  -77.6419  -113.538  -133.615  -136.154  -150.037  -156.019  -168.62  -182.278  -185.54  -211.416  -217.93  -252.794  -256.257  -277.242  -291.074  -292.86  -301.549  -321.387  -323.016  -338.627  -338.733  -348.746  -356.68  -378.442  -385.638  -397.794  -411.774  -434.116  -452.827  -463.604  -480.672  -484.157  -504.138  -504.361  -506.167  -543.623  -546.151  -546.231  -563.702  -563.76  -567.732  -596.299  -604.298  -604.978  -618.192  -618.945  -627.171  -659.189  -659.788  -678.809  -697.443  -705.111  -742.345  -742.559  -756.775  -779.534  -782.256  -782.278  -787.155  -811.126  -834.612  -834.627  -837.131  -837.221  -861.558  -885.351  -889.388  -889.403  -905.251  -907.519  -913.998  -915.744  -943.754  -943.788  -959.761  -959.888  -988.484  -996.172  -998.85  -1017.33  -1061.39  -1062.56  -1092.04  -1113.89  -1113.89  -1122.99  -1122.99  -1150.35  -1165.34  -1166.54  -1180.48  -1180.49  -1185.85  -1185.86  -1200.35  -1217.9  -1233.27  -1233.29  -1243.39  -1243.39  -1276.14  -1296.12  -1296.13  -1298.79  -1305.27  -1316.86  -1317.69  -1326.05  -1354.77  -1354.78  -1379.23  -1379.23  -1415.9  -1417.1  -1428.8  -1434.89  -1491.13  -1510.34  -1510.37  -1527.22  -1527.31  -1544.97  -1572.94  -1572.95  -1581.7  -1581.74  -1600.69  -1600.69  -1619.49  -1635.59  -1635.89  -1638.43  -1644.96  -1650.69  -1650.75  -1655.01  -1655.01  -1687.91  -1687.97  -1691.85  -1724.11  -1724.11  -1761.3  -1761.32  -1766.41  -1791.37  -1791.83  -1792.38  -1807.44  -1807.61  -1855.44  -1855.5  -1879.93  -1879.94  -1927.71  -1927.91  -1943.07  -1944.03  -1952.84  -1994.15  -1995.24  -2010.67  -2044.13  -2044.3  -2051.44  -2054.68  -2060.48  -2078.16  -2078.24  -2103.68  -2111.44  -2117.77  -2118.02  -2121.83  -2135.35  -2135.39  -2160.59  -2167.69  -2181.53  -2185.94  -2187.41  -2187.48  -2191.44  -2191.58  -2193.93  -2226.5  -2234.47  -2236.18  -2269.9  -2269.95  -2310.44  -2310.51  -2334.94  -2344.37  -2367.61  -2368.44  -2383.47  -2390  -2441.94  -2448.54  -2466.39  -2467.08  -2479.12  -2524.74  -2525.58  -2525.62  -2535.11  -2546.92  -2547.11  -2578.67  -2610.75  -2619.25  -2620.16  -2640.55  -2647.63  -2663.12  -2670.46  -2673.17  -2676.55  -2684.74  -2742.1  -2746.29  -2748.34  -2754.51  -2779.23  -2786.81  -2787.54  -2788.44  -2802.36  -2838.02  -2838.07  -2854.1  -2896.88  -2903.39  -2948.63  -2955.02  -3032.88  -3043.85  -3045.98  -3113.44  -3117.82  -3143.53  -3143.58  -3174.81  -3216.45  -3221.78  -3222.84  -3227.04  -3279.84  -3309.15  -3332.06  -3349.66  -3372.74  -3414.2  -3454.7  -3466.87  -3504.49  -3567.17  -3617.34  -3679.48  -3774.5  -3793.23  -3828.28  -3876.8  -3890.05  -3897.22  -3934.21  -3943.83  -4012.77  -4049.76  -4051.8  -4103.49  -4176.21  -4227.3  -4298.16  -4371.08  -4493.65  -4550.56  -4602.68  -4619.73  -4676.66  -4684.81  -4725.31  -4729.09  -4820.96  -4860.75  -4887.67  -4949.81  -5276.42  -5330.13  -5399.02  -5413  -5435.97  -5467.9  -5547.3  -5562.18  -5583.79  -5613.28  -6121.65  -6178.53  -6230.88  -6269.53  -6322.55  -6338.32  -6362.34  -6396.26  -7030.47  -7085.28  -7164.48  -7196.23  -7200.97  -7277.2  -8002.51  -8071.09  -8129.01  -8209.77  -9044.65  -9125.45  -10173.5  
2  0  0.0287588   2  -2  -1.95548  -12.4778  -50.2766  -57.3269  -75.3515  -82.9989  -111.102  -124.759  -127.03  -149.397  -163.545  -176.075  -181.07  -197.286  -209.932  -226.083  -248.941  -253.287  -268.853  -276.653  -278.583  -304.22  -321.393  -333.258  -338.551  -339.645  -348.166  -372.008  -387.491  -398.246  -401.517  -414.629  -430.74  -445.134  -460.182  -466.181  -484.254  -484.654  -505.285  -508.843  -535.353  -541.907  -542.433  -558.14  -567.881  -568.032  -603.523  -604.379  -612.111  -625.209  -625.596  -660.464  -668.139  -670.643  -686.84  -686.959  -707.05  -722.806  -745.985  -746.121  -756.782  -756.832  -761.575  -812.8  -813.004  -823.083  -830.665  -836.41  -861.377  -861.394  -862.163  -873.984  -874.59  -916.504  -917.332  -917.425  -933.253  -933.264  -970.625  -978.355  -978.444  -1012.21  -1013.32  -1031.8  -1035.29  -1037.18  -1047.64  -1071.95  -1090.09  -1092.09  -1092.1  -1116.92  -1116.92  -1140.13  -1148.29  -1148.32  -1208.39  -1208.41  -1217.66  -1217.78  -1220.52  -1221.59  -1239.37  -1246.47  -1268.42  -1268.64  -1274.03  -1274.03  -1283.49  -1333.96  -1333.97  -1341.69  -1346.89  -1346.9  -1391.53  -1393.78  -1393.79  -1420.28  -1450.24  -1450.27  -1471.43  -1471.91  -1474.23  -1490.98  -1491.08  -1492.97  -1499.77  -1546.68  -1546.72  -1548.73  -1574.22  -1575.89  -1575.9  -1606.8  -1606.86  -1637.95  -1637.95  -1666.09  -1666.15  -1693.46  -1693.46  -1701.43  -1701.58  -1714.39  -1721.59  -1722.72  -1746.71  -1746.78  -1753.61  -1753.61  -1767.92  -1812.87  -1812.88  -1842.46  -1847.99  -1848.04  -1867.87  -1871.46  -1892.95  -1892.95  -1929.32  -1952.94  -1954  -1973.19  -1973.65  -1979.46  -1994.06  -1994.15  -2008.55  -2012.14  -2018.05  -2019.13  -2068.35  -2075.7  -2079.29  -2086.39  -2120.27  -2120.35  -2121.03  -2121.1  -2127.62  -2136.32  -2176.49  -2176.53  -2207.38  -2208.44  -2215.16  -2236.26  -2236.33  -2266.54  -2267.15  -2268.85  -2287.39  -2287.76  -2295.51  -2295.57  -2311.77  -2318.89  -2322.61  -2375.24  -2375.3  -2387.24  -2421.4  -2430.77  -2434.65  -2441.84  -2443.3  -2477.99  -2479.04  -2479.22  -2518.98  -2533.45  -2548.9  -2581.7  -2589.2  -2593.27  -2602.15  -2602.18  -2632.74  -2632.94  -2652.36  -2667.02  -2667.96  -2695.11  -2696.75  -2722.44  -2725.57  -2732.07  -2749.54  -2757.21  -2782.22  -2788.55  -2835.5  -2841.33  -2848.78  -2921.06  -2924.39  -2924.43  -2927.66  -2943.37  -2952.19  -2962.55  -3024.48  -3030.75  -3066.1  -3106.05  -3121.46  -3156.22  -3156.96  -3181.15  -3240.28  -3276.15  -3281.09  -3302.79  -3308.06  -3319.96  -3331.51  -3391.17  -3423.35  -3450.33  -3469.32  -3530  -3548.74  -3641.46  -3701.61  -3717.25  -3765.72  -3772.55  -3832.19  -3868.75  -3891.34  -3948.33  -3971.01  -4003.62  -4063.29  -4074.31  -4122.4  -4206.62  -4211.24  -4313.34  -4352.45  -4431.43  -4486.7  -4546.29  -4605.43  -4683.54  -4685.09  -4738.91  -4796.31  -4798.9  -4867.81  -4920.57  -4946.21  -5208.66  -5263.89  -5323.5  -5382.59  -5471.21  -5481.83  -5538.83  -5573.32  -5608.39  -5666.49  -6048.93  -6104.23  -6164.17  -6232.88  -6311.29  -6344.3  -6411.97  -6476.25  -6952.25  -7009.16  -7078.56  -7136.66  -7276.61  -7359.59  -7919.73  -7987.22  -8051.48  -8296.4  -8956.99  -9039.82  -10081.6  
3  0  0.0431382   1  -1  -4.1053  -9.23044  -48.9237  -62.1631  -72.8672  -90.3211  -106.337  -119.595  -121.225  -150.807  -160.193  -182.038  -191.356  -200.096  -220.057  -224.183  -239.717  -253.7  -260.654  -264.627  -286.692  -290.126  -322.293  -322.514  -346.985  -354.806  -356.101  -370.577  -396.59  -406.647  -408.183  -415.525  -418.949  -461.874  -463.978  -465.169  -468.962  -472.367  -475.843  -520.314  -520.836  -523.181  -541.769  -568.441  -588.71  -589.526  -593.12  -594.248  -627.192  -634.389  -645.741  -645.87  -658.469  -659.144  -712.479  -713.66  -716.361  -720.404  -731.093  -731.138  -753.887  -754.074  -768.668  -786.251  -789.358  -791.95  -815.311  -843.015  -843.191  -868.625  -876.095  -888.583  -888.673  -924.789  -924.807  -946.732  -946.746  -965.047  -965.794  -973.414  -973.617  -999.609  -999.612  -1027.41  -1031.64  -1061.86  -1061.87  -1080.51  -1081.46  -1081.72  -1103.23  -1115.74  -1115.75  -1122.62  -1122.64  -1128.47  -1180.42  -1184.84  -1186.86  -1189.73  -1223.65  -1223.72  -1250.74  -1250.74  -1276.62  -1277.82  -1305.23  -1305.24  -1340.24  -1340.25  -1350.83  -1351.18  -1374.67  -1374.67  -1391.79  -1392  -1405.37  -1408.98  -1411.96  -1411.97  -1455.2  -1455.3  -1458.79  -1479.7  -1505.22  -1512.57  -1512.61  -1528.12  -1528.4  -1559.76  -1565.07  -1565.13  -1566.75  -1580.5  -1580.51  -1647.52  -1647.58  -1653.09  -1654.23  -1675.66  -1675.66  -1688.53  -1688.59  -1732.92  -1732.92  -1768.41  -1768.55  -1785.54  -1785.54  -1791.84  -1792.24  -1841.91  -1841.96  -1845.75  -1849.73  -1867.73  -1867.74  -1898.91  -1904.68  -1905.21  -1908.39  -1908.39  -1912.19  -1913.23  -1920.27  -1945.67  -1966.29  -1970.18  -1999.74  -2006.84  -2035.37  -2041.74  -2061.59  -2061.64  -2072.51  -2082.23  -2095.41  -2096.53  -2124.71  -2124.81  -2164.19  -2164.28  -2190.31  -2197.99  -2208.29  -2208.52  -2218.21  -2218.25  -2242.5  -2249.91  -2287.25  -2287.31  -2296.81  -2297.12  -2324.36  -2324.43  -2344.85  -2344.92  -2353.25  -2356.61  -2410.8  -2428.68  -2428.96  -2431.7  -2436.08  -2442.04  -2442.1  -2459  -2488.77  -2493.95  -2494.03  -2502.23  -2509.61  -2509.71  -2518.94  -2541.13  -2605.17  -2606.82  -2623.24  -2663.77  -2680.19  -2680.22  -2715.24  -2716.19  -2720.62  -2720.83  -2753.84  -2761.8  -2772.31  -2775.12  -2818.76  -2824.59  -2831.44  -2854.25  -2862.29  -2882.27  -2906.69  -2913.54  -2947.25  -2954.02  -3012.51  -3012.55  -3014.82  -3068.68  -3100.09  -3102.13  -3108.31  -3137.66  -3170.97  -3172.18  -3174.64  -3191.22  -3292.25  -3329.9  -3344.02  -3383.73  -3390.9  -3396.12  -3452.69  -3473.47  -3489.72  -3532.15  -3607.29  -3611.76  -3660.44  -3667.4  -3717.39  -3769.57  -3851.63  -3853.74  -3862.54  -3892.21  -4007.05  -4046.94  -4063.98  -4116.22  -4116.88  -4198.32  -4248.23  -4335.6  -4369.66  -4401.2  -4423.41  -4492.31  -4529.3  -4646.87  -4706.76  -4747.79  -4801.78  -4871.66  -4893.11  -4917.38  -5033.68  -5141.35  -5198.23  -5250.4  -5332.5  -5382.21  -5535.18  -5551.15  -5610.99  -5671.39  -5752.56  -5976.64  -6030.57  -6100.4  -6145.96  -6262.25  -6419.86  -6486.47  -6559.86  -6874.52  -6934.28  -6994.56  -7075.71  -7358.13  -7444.35  -7837.74  -7904.21  -7977.57  -8384.78  -8870.47  -8956.56  -9991.46  
4  0  0.0575175   0  -0  -6.49882  -6.49882  -48.3451  -67.7652  -67.7652  -94.5063  -104.458  -118.042  -118.042  -154.721  -154.721  -189.977  -197.955  -201.708  -201.708  -246.581  -246.581  -248.604  -248.604  -252.792  -283.257  -300.069  -316.607  -316.607  -358.147  -358.147  -371.972  -371.972  -372.277  -389.038  -429.258  -434.932  -434.932  -445.589  -445.589  -446.013  -484.297  -484.297  -492.799  -501.173  -501.173  -503.035  -573.931  -579.412  -579.412  -602.73  -602.73  -609.653  -612.856  -613.477  -613.477  -667.575  -667.575  -667.759  -706.364  -706.364  -706.451  -741.457  -742.948  -742.948  -763.628  -763.628  -766.133  -770.111  -771.175  -771.175  -816.298  -816.298  -816.446  -914.465  -914.465  -915.567  -915.643  -918.062  -918.062  -923.7  -923.7  -925.048  -974.931  -974.961  -974.961  -1025.06  -1025.06  -1025.09  -1031.98  -1032  -1032  -1085.85  -1085.85  -1085.88  -1124.31  -1124.8  -1124.8  -1131.77  -1131.77  -1132.32  -1161.3  -1161.4  -1161.4  -1186.79  -1186.8  -1186.82  -1283.83  -1283.83  -1283.83  -1333.79  -1333.79  -1334.49  -1334.93  -1335.89  -1335.89  -1339.25  -1339.25  -1339.52  -1412.45  -1412.45  -1412.45  -1419.93  -1419.93  -1420.03  -1437.98  -1437.99  -1438  -1478.04  -1478.04  -1478.08  -1527.79  -1527.8  -1527.85  -1585.89  -1586.03  -1586.04  -1587.11  -1587.12  -1587.26  -1628.54  -1628.55  -1628.6  -1635.59  -1635.6  -1635.65  -1713.88  -1713.88  -1713.97  -1771.85  -1771.85  -1771.89  -1821.34  -1821.35  -1821.41  -1837.42  -1837.51  -1837.52  -1837.71  -1837.71  -1837.8  -1871.77  -1871.86  -1872.81  -1921.89  -1921.9  -1921.95  -1925.3  -1925.34  -1928.97  -1929  -1929.05  -1929.37  -1999.79  -1999.85  -2005.26  -2025.16  -2025.23  -2035.9  -2130.65  -2130.69  -2130.73  -2130.79  -2130.88  -2130.93  -2174.69  -2174.75  -2175.83  -2175.88  -2182.03  -2183.73  -2207.79  -2207.87  -2208.75  -2261.2  -2261.24  -2264.95  -2335.66  -2335.71  -2340.71  -2360.96  -2361.03  -2370.86  -2385.91  -2386.93  -2424.34  -2424.38  -2424.42  -2424.43  -2431.92  -2431.98  -2443.76  -2446.63  -2493.22  -2500.75  -2510.22  -2510.23  -2511.36  -2511.37  -2517  -2518.66  -2593.44  -2599.59  -2600.51  -2608.86  -2759.79  -2759.86  -2759.89  -2763.97  -2764.93  -2766.46  -2768.18  -2774.16  -2803.93  -2804.2  -2810.4  -2810.6  -2821.75  -2824.42  -2871.16  -2878.17  -2963.9  -2971.39  -2977.08  -2978.44  -2986.17  -3017.17  -3091.48  -3095.85  -3102.39  -3102.43  -3103.04  -3116.84  -3181.59  -3187.54  -3187.75  -3189.19  -3265.9  -3267.04  -3384  -3437.23  -3479.18  -3480.77  -3485.96  -3511.64  -3517.54  -3523.68  -3536.81  -3604.15  -3661.84  -3686.43  -3695.21  -3711.14  -3811.38  -3818.4  -3857.98  -3943.55  -4021.37  -4028.92  -4066.29  -4123.95  -4173.38  -4275.88  -4287.93  -4308.23  -4320.52  -4361.39  -4435.75  -4460.87  -4490.86  -4610.5  -4619.08  -4812.4  -4866.04  -4867.43  -4944.45  -4972.05  -5074.56  -5123.04  -5132.17  -5181.53  -5284.03  -5295.92  -5498.85  -5621.08  -5683.64  -5737.88  -5841.04  -5904.7  -5958.29  -6036.63  -6064.15  -6215.11  -6496.18  -6562.45  -6646.48  -6797.4  -6859.89  -6914.05  -7017.17  -7440.85  -7531.41  -7756.51  -7822.66  -7906.67  -8474.92  -8785.15  -8875.61  -9903.08  
5  0.0124529  0.0503278   0.732051  -0.732051  -4.72771  -8.44471  -48.9494  -62.0561  -73.7455  -91.162  -105.768  -114.265  -125.162  -151.935  -158.613  -177.144  -198.942  -207.317  -211.575  -233.431  -235.13  -241.094  -259.302  -275.371  -288.273  -290.701  -307.274  -333.074  -338.728  -354.715  -360.647  -389.21  -389.505  -400.733  -401.035  -426.087  -426.338  -449.093  -449.84  -456.785  -482.967  -484.054  -484.379  -503.161  -509.543  -540.444  -551.109  -558.188  -568.697  -592.545  -594.516  -616.555  -623.413  -635.009  -635.779  -644.146  -682.051  -682.213  -690.917  -691.045  -698.825  -725.152  -740.494  -740.852  -756.005  -760.9  -761.293  -794.316  -794.448  -797.668  -799.548  -815.924  -860.814  -865.839  -875.695  -877.488  -917.204  -917.257  -920.092  -944.436  -944.463  -965.675  -970.211  -973.089  -1002.28  -1002.3  -1002.59  -1002.62  -1055.27  -1055.29  -1056.8  -1056.92  -1070.23  -1077.48  -1092.31  -1126.3  -1126.33  -1137.17  -1137.17  -1146.08  -1164.55  -1164.55  -1177.34  -1177.96  -1218.23  -1221.41  -1246.94  -1271.45  -1280.88  -1281.8  -1317.2  -1317.2  -1332.84  -1332.84  -1346.98  -1371.59  -1371.6  -1372.52  -1385.22  -1385.22  -1395.22  -1396.4  -1441  -1441  -1442.65  -1442.65  -1478.3  -1478.31  -1490.89  -1495.22  -1495.22  -1520.72  -1521.89  -1548.9  -1577.73  -1577.74  -1594.24  -1594.25  -1598.62  -1619.01  -1619.01  -1637.76  -1646.58  -1646.75  -1695.77  -1699.24  -1706.33  -1745.36  -1752.65  -1752.74  -1772.07  -1772.24  -1809.87  -1809.91  -1831.64  -1831.73  -1834.86  -1834.86  -1845.88  -1852.99  -1862.43  -1862.5  -1885.82  -1885.86  -1908.21  -1908.34  -1944.64  -1944.7  -1954.16  -1954.92  -1954.98  -1985.27  -1985.33  -1992.07  -1992.14  -2010.6  -2054.77  -2054.9  -2086.48  -2109.95  -2110.01  -2117  -2121.24  -2138.07  -2138.12  -2162.5  -2162.54  -2174.63  -2201.62  -2201.66  -2249.11  -2251.7  -2252.67  -2263.09  -2264.78  -2274.45  -2305.7  -2309.32  -2340.68  -2341.69  -2348.33  -2348.39  -2374.72  -2380.62  -2397.79  -2400.81  -2411.81  -2420.5  -2421.83  -2422.12  -2423.69  -2424.83  -2450.17  -2457.54  -2512.96  -2513.03  -2529.48  -2532.27  -2536.57  -2539.65  -2572.81  -2580.16  -2581.4  -2588.28  -2667.8  -2673.37  -2673.45  -2727.33  -2727.9  -2734.56  -2767.3  -2773.12  -2781.18  -2792.11  -2797.79  -2813.26  -2849.22  -2855.14  -2870.3  -2880.07  -2889.2  -2913.3  -2922.57  -2967.18  -3004.68  -3009.18  -3015.87  -3036.17  -3045.23  -3073.17  -3090.59  -3090.81  -3099.94  -3100.28  -3190.76  -3200.08  -3242.54  -3270.13  -3382.43  -3389.02  -3430.8  -3438.42  -3488.84  -3492.26  -3510.3  -3548.41  -3561.19  -3598.22  -3605.37  -3657.56  -3715.79  -3739.64  -3761.05  -3775.88  -3780.21  -3934.94  -3962.22  -4004.9  -4126.08  -4183  -4223.62  -4235.24  -4247.12  -4300.88  -4317.33  -4367.22  -4369.79  -4406.78  -4520.19  -4524.35  -4584.27  -4770.62  -4877.33  -4931.31  -5001.18  -5008.31  -5046.89  -5065.19  -5117.38  -5163.18  -5199.47  -5249.2  -5402.18  -5691.19  -5751.02  -5811.4  -5833.09  -5887.03  -5892.57  -5956.87  -6002.45  -6118.74  -6570.4  -6636.99  -6710.38  -6720.48  -6780.25  -6840.53  -6921.69  -7519.17  -7605.37  -7673.19  -7739.68  -7813.04  -8556.3  -8695.43  -8781.53  -9805.94  
